current[l][t]
-580.006	883.313	619.994	379.715	379.715	302.524	302.524	305.294	299.754	252.433	293.47	0	0	1200	1200	883.313	-573.651	1193.64	1579.71	1579.71	-399.591	652.024	293.47	1482.42	-48.5455	67.9496	-676.304	309.063	-71.5634	293.47	0	0	-676.304	555.241	167.253	-120.377	114.422	-337.688	-690.737	
-577.341	880.648	622.659	384.377	384.377	302.524	302.524	390.839	214.209	122.155	509.293	0	0	1200	1200	880.648	-540.607	1163.27	1584.38	1584.38	-398.965	521.12	509.293	1467.85	244.895	113.635	-645.641	288.682	-44.753	-150.359	0	0	-645.641	578.325	162.59	-120.377	-28.9714	-306.583	-620.776	
-584.192	887.499	615.808	379.029	379.029	302.524	302.524	289.382	315.665	220.62	309.372	0	0	1200	1200	887.499	-625.554	1241.36	1579.03	1579.03	-259.593	480.212	309.372	1580.94	91.433	175.387	-723.566	327.026	-0.676838	309.372	0	0	-723.566	605.47	167.939	0	148.897	-327.297	-761.815	
-578.41	881.717	621.59	388.355	388.355	302.524	302.524	369.623	235.425	148.009	462.223	0	0	1200	1200	881.717	-553.861	1175.45	1588.35	1588.35	-382.981	530.991	462.223	1523.61	228.38	143.998	-657.346	284.515	44.1945	28.1996	0	0	-657.346	628.348	158.613	0	18.6598	-266.837	-632.393	
-600.734	904.041	599.266	-8.93038	-8.93038	1208.39	1292.52	1112.45	1388.47	585.097	527.356	0	0	1200	1200	904.041	-830.675	1429.94	1191.07	1191.07	62.0476	523.05	527.356	1854.46	54.9477	276.849	-911.725	441.387	-72.4423	527.356	0	0	-911.725	655.855	191.253	0	295.424	-470.364	-1036.88	
-616.499	919.806	583.501	179.192	225.465	1308	1423.22	1171.82	1559.4	664.836	506.987	0	324	1200	1096.6	919.806	-1026.17	1609.67	1379.19	1322.06	166.794	498.042	506.987	2121.65	-58.7487	343.519	-1090.97	549.945	-137.467	506.987	0	324	-1090.97	710.774	-110.728	0	452.33	-604.932	-1293.35	
-590.45	1036.65	609.55	103.522	210.14	1644	1644	1297.87	1990.13	849.739	448.129	357.5	548	1200	961.755	1036.65	-1203.26	1812.81	1303.52	1171.89	506.153	343.585	448.129	2215.82	-300.185	385.001	-1264.72	727.494	-505.639	448.129	357.5	548	-1264.72	562.953	-289.231	0	665.291	-929.749	-1608.88	
-520.062	1249	679.938	-58.4897	276.151	1818.68	1980	1349.72	2448.96	1049.42	300.304	715	660	1200	452.222	1249	-1320.06	2000	1141.51	728.373	984.478	64.9395	300.304	2142.64	-661.007	419.178	-1393.58	916.063	-887.795	300.304	715	660	-1393.58	288.906	-353.231	-396	950.143	-1271.18	-1961.46	
-187.342	2000	1012.66	-416.955	120.062	1644	1550.45	986.357	2208.09	946.299	40.0575	715	660	1200	0	2000	-987.342	2000	783.045	120.062	1233.33	-287.029	40.0575	1372.57	-852.662	234.864	-1165.09	1053.4	-863.623	40.0575	715	660	-1165.09	-288.679	-329.231	-792	858.242	-1398.85	-2126.96	
-259.386	1837.39	940.614	-316.373	220.644	1644	1644	1019.74	2268.26	981.86	37.8838	715	660	1200	0	1837.39	-1059.39	2000	883.627	220.644	1232.72	-250.861	37.8838	1604.45	-912.113	337.682	-1213.79	1019.34	-835.176	37.8838	715	660	-1213.79	-94.7002	-336.431	-792	1021.92	-1353.41	-2034.47	
-187.342	2000	1012.66	-307.521	137.201	1644	1644	1022.05	2265.95	969.394	52.6538	715	660	993.76	0	2000	-987.342	2000	686.239	137.201	1255.13	-285.74	52.6538	1372.57	-856.502	239.993	-1165.09	1053.4	-863.623	52.6538	715	660	-1165.09	-288.679	-329.231	-792	866.998	-1398.85	-2126.96	
-206.902	1784.9	882.298	393.194	631.667	1645.7	1828.92	1179.65	2294.98	988.432	191.215	715	660	532.885	0	1784.9	-1117.7	2000	926.079	631.667	1037.91	-49.4735	191.215	1860.32	-736.331	368.088	-1252.4	1006.97	-764.49	191.215	715	660	-1252.4	129.759	-341.231	-396	939.669	-1312.77	-1910.75	
-510.689	1236.69	689.311	305.05	791.811	1781.95	1644	1289.19	2136.76	914.488	374.698	602	660	1087.7	0	1236.69	-1193.54	1882.85	1392.75	791.811	694.556	219.933	374.698	2125.72	-447.716	384.879	-1275.52	824.559	-682.815	374.698	602	660	-1275.52	426.048	-377.231	0	764.828	-1097.68	-1688.99	
-631.123	934.429	568.877	303.923	840.939	1644	1644	1275.28	2012.72	860.255	415.021	489	530.944	1200	0	934.429	-1207.5	1776.37	1503.92	840.939	565.71	294.545	415.021	2163.18	-348.933	384.709	-1259.69	703.547	-625.372	415.021	489	530.944	-1259.69	515.338	-272.174	0	697.878	-953.696	-1593.56	
-512.396	1238.4	687.604	321.989	784.472	1644	1644	1254.45	2033.55	875.082	379.368	602	621.499	1200	166.551	1238.4	-1214.71	1902.31	1521.99	951.023	607.788	267.294	379.368	2231.83	-416.679	406.005	-1294.01	821.118	-567.516	379.368	602	621.499	-1294.01	520.859	-343.53	0	769.233	-1048.12	-1679.73	
-430.754	1450.58	769.246	249.271	622.243	1644	1644	1218.23	2069.77	889.687	328.542	715	660	1200	366.569	1450.58	-1230.75	2000	1449.27	988.812	708.914	180.773	328.542	2145.4	-484.809	358.812	-1329.76	939.022	-772.999	328.542	715	660	-1329.76	355.484	-353.231	0	758.58	-1248.22	-1823.71	
-187.342	2000	1012.66	-386.319	89.4255	1485.4	1644	986.136	2143.27	915.629	70.5068	715	660	1200	136.917	2000	-987.342	2000	813.681	226.342	1161.24	-245.607	70.5068	1372.57	-782.862	206.486	-1165.09	1053.4	-863.623	70.5068	715	660	-1165.09	-288.679	-329.231	-396	776.991	-1398.85	-2126.96	
-187.342	2000	1012.66	-421.755	115.262	1309.86	1464.68	774.146	2000.39	864.047	-89.9014	715	660	1200	0	2000	-987.342	2000	778.245	115.262	1279.57	-415.522	-89.9014	1172.71	-935.2	184.109	-1167.47	1063.84	-943.89	-89.9014	715	660	-1167.47	-452.128	-324.431	-792	853.044	-1441.4	-2262.18	
-390.175	1542.18	809.825	226.245	670.966	1644	1644	1132.05	2155.95	928.388	203.666	715	660	993.76	0	1542.18	-1190.18	2000	1220	670.966	939.623	-11.2344	203.666	1912.55	-664.477	339.273	-1303.55	964.993	-841.891	203.666	715	660	-1303.55	138.048	-346.031	-413.27	856.506	-1301.75	-1964.73	
-413.896	1488.55	786.104	255.923	792.939	1644	1644	1166.18	2121.82	921.271	244.909	715	660	1200	0	1488.55	-1213.58	1999.69	1455.92	792.939	827.735	93.5364	244.909	2144.22	-629.812	416.579	-1317.44	943.243	-751.892	244.909	715	660	-1317.44	366.625	-353.231	-396	925.944	-1244	-1798.38	
-519.698	1245.7	680.302	469.807	616.085	1644	1644	1315.59	1972.41	852.215	463.374	357.5	660	1200	873.132	1245.7	-1305.26	1985.56	1669.81	1489.22	432.622	419.593	463.374	2529.27	-309.616	440.955	-1374.97	871.237	-600.838	463.374	357.5	660	-1374.97	721.923	-371.746	0	738.876	-1111.57	-1613.5	
-519.494	1245.49	680.506	547.3	547.3	1644	1644	1393.13	1894.87	811.929	581.199	0	548	1200	1200	1245.49	-1302.73	1983.24	1747.3	1747.3	238.689	573.24	581.199	2622.03	-123.673	413.014	-1371.51	861.123	-531.218	581.199	0	548	-1371.51	824.669	-264.1	0	579.676	-1073.61	-1533.46	
-724.077	724.077	475.923	588.579	588.579	1308	1528.79	1240.12	1596.67	685.256	554.865	0	324	1200	1200	724.077	-1298.55	1774.48	1788.58	1788.58	99.0189	586.237	554.865	2518.57	-35.5183	379.135	-1320.05	644.421	-475.236	554.865	0	324	-1320.05	834.59	-81.3794	0	479.416	-834.515	-1450.52	
-713.197	713.197	486.803	385.58	385.58	1308	1308	1139.04	1476.96	634.314	504.726	0	324	1200	1200	713.197	-1163.64	1650.44	1585.58	1585.58	102.659	531.655	504.726	2299.74	-43.7938	360.882	-1196.76	542.65	-209.697	504.726	0	324	-1196.76	781.127	-109.433	0	463.082	-626.528	-1390.52	
